File: book/surface/investigacion_inicial copy/busqueda/mxenes_xrd.csv
"YEAR", Count
"2026","2"
"2025","55"
"2024","58"
"2023","49"
"2022","27"
"2021","21"
"2020","9"
"2019","15"
"2018","1"
"2017","4"
"2016","4"
"2014","1"